* 亜風実 (Afumi/Affriza) Bass Test File
* Data concluded subjectively based on Dio Affriza's ears audiometry test and preference
* Ears AVG: 13dB (Normal)
* Hospital: Ultra Medica, East Java
* Instrument: INVENTIS BELL, SN: AU1DB17204066 (Calib. 15/09/2022) AC Transducer: DD45
*
* Freq(Hz) SPL(dB)
20.000000 60.225
20.250000 60.219
20.500000 60.201
20.750000 60.179
21.000000 60.156
21.250000 60.132
21.500000 60.109
21.750000 60.085
22.000000 60.061
22.250000 60.038
22.500000 60.014
22.750000 59.990
23.000000 59.967
23.250000 59.943
23.500000 59.919
23.750000 59.896
24.000000 59.872
24.250000 59.849
24.500000 59.825
24.750000 59.802
25.000000 59.778
25.250000 59.755
25.500000 59.731
25.750000 59.708
26.000000 59.684
26.250000 59.661
26.500000 59.637
26.750000 59.614
27.000000 59.590
27.250000 59.567
27.500000 59.543
27.750000 59.520
28.000000 59.496
28.250000 59.473
28.500000 59.450
28.750000 59.426
29.000000 59.403
29.250000 59.379
29.500000 59.356
29.750000 59.333
30.000000 59.309
30.250000 59.286
30.500000 59.263
30.750000 59.240
31.000000 59.216
31.250000 59.193
31.500000 59.170
31.750000 59.147
32.000000 59.123
32.250000 59.100
32.500000 59.077
32.750000 59.054
33.000000 59.031
33.250000 59.007
33.500000 58.984
33.750000 58.961
34.000000 58.938
34.250000 58.915
34.500000 58.892
34.750000 58.869
35.000000 58.845
35.250000 58.822
35.500000 58.799
35.750000 58.776
36.000000 58.753
36.250000 58.730
36.500000 58.707
36.750000 58.684
37.000000 58.661
37.250000 58.638
37.500000 58.615
37.750000 58.592
38.000000 58.569
38.250000 58.547
38.500000 58.524
38.750000 58.501
39.000000 58.478
39.250000 58.455
39.500000 58.432
39.750000 58.409
40.000000 58.387
40.250000 58.364
40.500000 58.341
40.750000 58.318
41.000000 58.295
41.250000 58.273
41.500000 58.250
41.750000 58.227
42.000000 58.204
42.250000 58.182
42.500000 58.159
42.750000 58.136
43.000000 58.113
43.250000 58.091
43.500000 58.068
43.750000 58.045
44.000000 58.023
44.250000 58.000
44.500000 57.978
44.750000 57.955
45.000000 57.932
45.250000 57.910
45.500000 57.887
45.750000 57.864
46.000000 57.842
46.250000 57.819
46.500000 57.797
46.750000 57.774
47.000000 57.752
47.250000 57.729
47.500000 57.707
47.750000 57.684
48.000000 57.662
48.250000 57.640
48.500000 57.617
48.750000 57.595
49.000000 57.573
49.250000 57.550
49.500000 57.528
49.750000 57.506
50.000000 57.484
50.250000 57.462
50.500000 57.441
50.750000 57.419
51.000000 57.398
51.250000 57.376
51.500000 57.355
51.750000 57.333
52.000000 57.312
52.250000 57.291
52.500000 57.269
52.750000 57.248
53.000000 57.227
53.250000 57.205
53.500000 57.184
53.750000 57.163
54.000000 57.142
54.250000 57.120
54.500000 57.099
54.750000 57.078
55.000000 57.057
55.250000 57.036
55.500000 57.014
55.750000 56.993
56.000000 56.972
56.250000 56.951
56.500000 56.930
56.750000 56.909
57.000000 56.888
57.250000 56.867
57.500000 56.846
57.750000 56.825
58.000000 56.804
58.250000 56.783
58.500000 56.762
58.750000 56.741
59.000000 56.720
59.250000 56.699
59.500000 56.678
59.750000 56.658
60.000000 56.637
60.250000 56.617
60.500000 56.597
60.750000 56.578
61.000000 56.558
61.250000 56.539
61.500000 56.520
61.750000 56.502
62.000000 56.484
62.250000 56.466
62.500000 56.448
62.750000 56.430
63.000000 56.412
63.250000 56.395
63.500000 56.377
63.750000 56.360
64.000000 56.342
64.250000 56.325
64.500000 56.308
64.750000 56.291
65.000000 56.273
65.250000 56.256
65.500000 56.239
65.750000 56.221
66.000000 56.204
66.250000 56.187
66.500000 56.170
66.750000 56.153
67.000000 56.136
67.250000 56.119
67.500000 56.102
67.750000 56.084
68.000000 56.067
68.250000 56.050
68.500000 56.033
68.750000 56.017
69.000000 56.000
69.250000 55.983
69.500000 55.966
69.750000 55.949
70.000000 55.932
70.250000 55.916
70.500000 55.899
70.750000 55.883
71.000000 55.867
71.250000 55.851
71.500000 55.835
71.750000 55.820
72.000000 55.805
72.250000 55.790
72.500000 55.776
72.750000 55.761
73.000000 55.747
73.250000 55.734
73.500000 55.720
73.750000 55.706
74.000000 55.693
74.250000 55.680
74.500000 55.667
74.750000 55.654
75.000000 55.641
75.250000 55.628
75.500000 55.615
75.750000 55.602
76.000000 55.589
76.250000 55.576
76.500000 55.563
76.750000 55.550
77.000000 55.538
77.250000 55.525
77.500000 55.512
77.750000 55.499
78.000000 55.486
78.250000 55.474
78.500000 55.461
78.750000 55.448
79.000000 55.435
79.250000 55.422
79.500000 55.410
79.750000 55.397
80.000000 55.384
80.250000 55.372
80.500000 55.359
80.750000 55.346
81.000000 55.334
81.250000 55.321
81.500000 55.308
81.750000 55.296
82.000000 55.283
82.250000 55.270
82.500000 55.258
82.750000 55.245
83.000000 55.233
83.250000 55.220
83.500000 55.207
83.750000 55.195
84.000000 55.182
84.250000 55.170
84.500000 55.157
84.750000 55.145
85.000000 55.132
85.250000 55.120
85.500000 55.107
85.750000 55.095
86.000000 55.082
86.250000 55.070
86.500000 55.057
86.750000 55.045
87.000000 55.032
87.250000 55.020
87.500000 55.007
87.750000 54.995
88.000000 54.983
88.250000 54.970
88.500000 54.958
88.750000 54.946
89.000000 54.933
89.250000 54.921
89.500000 54.909
89.750000 54.896
90.000000 54.884
90.250000 54.872
90.500000 54.859
90.750000 54.847
91.000000 54.835
91.250000 54.823
91.500000 54.810
91.750000 54.798
92.000000 54.786
92.250000 54.774
92.500000 54.761
92.750000 54.749
93.000000 54.737
93.250000 54.725
93.500000 54.713
93.750000 54.701
94.000000 54.688
94.250000 54.676
94.500000 54.664
94.750000 54.652
95.000000 54.640
95.250000 54.628
95.500000 54.616
95.750000 54.604
96.000000 54.592
96.250000 54.580
96.500000 54.568
96.750000 54.555
97.000000 54.543
97.250000 54.531
97.500000 54.520
97.750000 54.508
98.000000 54.496
98.250000 54.484
98.500000 54.472
98.750000 54.460
99.000000 54.448
99.250000 54.436
99.500000 54.424
99.750000 54.412
100.000000 54.400
100.250000 54.389
100.500000 54.377
100.750000 54.365
101.000000 54.353
101.250000 54.341
101.500000 54.329
101.750000 54.318
102.000000 54.306
102.250000 54.294
102.500000 54.282
102.750000 54.271
103.000000 54.259
103.250000 54.247
103.500000 54.235
103.750000 54.224
104.000000 54.212
104.250000 54.200
104.500000 54.189
104.750000 54.177
105.000000 54.165
105.250000 54.154
105.500000 54.142
105.750000 54.130
106.000000 54.119
106.250000 54.107
106.500000 54.096
106.750000 54.084
107.000000 54.073
107.250000 54.061
107.500000 54.049
107.750000 54.038
108.000000 54.026
108.250000 54.015
108.500000 54.003
108.750000 53.992
109.000000 53.980
109.250000 53.969
109.500000 53.958
109.750000 53.946
110.000000 53.935
110.250000 53.923
110.500000 53.912
110.750000 53.901
111.000000 53.889
111.250000 53.878
111.500000 53.866
111.750000 53.855
112.000000 53.844
112.250000 53.833
112.500000 53.821
112.750000 53.810
113.000000 53.799
113.250000 53.787
113.500000 53.776
113.750000 53.765
114.000000 53.754
114.250000 53.742
114.500000 53.731
114.750000 53.720
115.000000 53.709
115.250000 53.698
115.500000 53.686
115.750000 53.675
116.000000 53.664
116.250000 53.653
116.500000 53.642
116.750000 53.631
117.000000 53.620
117.250000 53.609
117.500000 53.598
117.750000 53.587
118.000000 53.576
118.250000 53.565
118.500000 53.553
118.750000 53.542
119.000000 53.531
119.250000 53.520
119.500000 53.510
119.750000 53.499
120.000000 53.488
120.250000 53.477
120.500000 53.466
120.750000 53.455
121.000000 53.444
121.250000 53.433
121.500000 53.422
121.750000 53.411
122.000000 53.400
122.250000 53.390
122.500000 53.379
122.750000 53.368
123.000000 53.357
123.250000 53.346
123.500000 53.336
123.750000 53.325
124.000000 53.314
124.250000 53.303
124.500000 53.293
124.750000 53.282
125.000000 53.271
125.250000 53.261
125.500000 53.250
125.750000 53.239
126.000000 53.229
126.250000 53.218
126.500000 53.208
126.750000 53.197
127.000000 53.187
127.250000 53.176
127.500000 53.166
127.750000 53.156
128.000000 53.145
128.250000 53.135
128.500000 53.125
128.750000 53.114
129.000000 53.104
129.250000 53.094
129.500000 53.084
129.750000 53.074
130.000000 53.064
130.250000 53.055
130.500000 53.045
130.750000 53.035
131.000000 53.026
131.250000 53.016
131.500000 53.007
131.750000 52.997
132.000000 52.988
132.250000 52.979
132.500000 52.970
132.750000 52.961
133.000000 52.952
133.250000 52.944
133.500000 52.935
133.750000 52.927
134.000000 52.918
134.250000 52.910
134.500000 52.901
134.750000 52.893
135.000000 52.885
135.250000 52.877
135.500000 52.869
135.750000 52.861
136.000000 52.853
136.250000 52.845
136.500000 52.837
136.750000 52.829
137.000000 52.821
137.250000 52.813
137.500000 52.806
137.750000 52.798
138.000000 52.790
138.250000 52.782
138.500000 52.775
138.750000 52.767
139.000000 52.759
139.250000 52.752
139.500000 52.744
139.750000 52.737
140.000000 52.729
140.250000 52.722
140.500000 52.714
140.750000 52.706
141.000000 52.699
141.250000 52.691
141.500000 52.684
141.750000 52.676
142.000000 52.669
142.250000 52.662
142.500000 52.654
142.750000 52.647
143.000000 52.639
143.250000 52.632
143.500000 52.624
143.750000 52.617
144.000000 52.610
144.250000 52.602
144.500000 52.595
144.750000 52.588
145.000000 52.580
145.250000 52.573
145.500000 52.566
145.750000 52.558
146.000000 52.551
146.250000 52.544
146.500000 52.536
146.750000 52.529
147.000000 52.522
147.250000 52.515
147.500000 52.508
147.750000 52.500
148.000000 52.493
148.250000 52.486
148.500000 52.479
148.750000 52.472
149.000000 52.464
149.250000 52.457
149.500000 52.450
149.750000 52.443
150.000000 52.436
150.250000 52.429
150.500000 52.422
150.750000 52.415
151.000000 52.408
151.250000 52.401
151.500000 52.393
151.750000 52.386
152.000000 52.379
152.250000 52.372
152.500000 52.365
152.750000 52.358
153.000000 52.351
153.250000 52.344
153.500000 52.337
153.750000 52.330
154.000000 52.323
154.250000 52.317
154.500000 52.310
154.750000 52.303
155.000000 52.296
155.250000 52.289
155.500000 52.282
155.750000 52.275
156.000000 52.268
156.250000 52.261
156.500000 52.255
156.750000 52.248
157.000000 52.241
157.250000 52.234
157.500000 52.227
157.750000 52.220
158.000000 52.214
158.250000 52.207
158.500000 52.200
158.750000 52.194
159.000000 52.187
159.250000 52.180
159.500000 52.173
159.750000 52.167
160.000000 52.160
160.250000 52.153
160.500000 52.147
160.750000 52.140
161.000000 52.134
161.250000 52.127
161.500000 52.121
161.750000 52.114
162.000000 52.108
162.250000 52.101
162.500000 52.095
162.750000 52.088
163.000000 52.082
163.250000 52.076
163.500000 52.069
163.750000 52.063
164.000000 52.057
164.250000 52.051
164.500000 52.044
164.750000 52.038
165.000000 52.032
165.250000 52.026
165.500000 52.020
165.750000 52.014
166.000000 52.009
166.250000 52.003
166.500000 51.997
166.750000 51.991
167.000000 51.986
167.250000 51.980
167.500000 51.975
167.750000 51.969
168.000000 51.964
168.250000 51.958
168.500000 51.953
168.750000 51.948
169.000000 51.943
169.250000 51.937
169.500000 51.932
169.750000 51.927
170.000000 51.922
170.250000 51.918
170.500000 51.913
170.750000 51.908
171.000000 51.903
171.250000 51.899
171.500000 51.894
171.750000 51.890
172.000000 51.885
172.250000 51.881
172.500000 51.876
172.750000 51.872
173.000000 51.868
173.250000 51.864
173.500000 51.859
173.750000 51.855
174.000000 51.851
174.250000 51.847
174.500000 51.843
174.750000 51.839
175.000000 51.836
175.250000 51.832
175.500000 51.828
175.750000 51.824
176.000000 51.820
176.250000 51.817
176.500000 51.813
176.750000 51.809
177.000000 51.806
177.250000 51.802
177.500000 51.799
177.750000 51.795
178.000000 51.792
178.250000 51.788
178.500000 51.785
178.750000 51.781
179.000000 51.778
179.250000 51.774
179.500000 51.771
179.750000 51.768
180.000000 51.764
180.250000 51.761
180.500000 51.758
180.750000 51.754
181.000000 51.751
181.250000 51.748
181.500000 51.744
181.750000 51.741
182.000000 51.738
182.250000 51.734
182.500000 51.731
182.750000 51.728
183.000000 51.725
183.250000 51.721
183.500000 51.718
183.750000 51.715
184.000000 51.712
184.250000 51.709
184.500000 51.705
184.750000 51.702
185.000000 51.699
185.250000 51.696
185.500000 51.693
185.750000 51.689
186.000000 51.686
186.250000 51.683
186.500000 51.680
186.750000 51.677
187.000000 51.674
187.250000 51.671
187.500000 51.667
187.750000 51.664
188.000000 51.661
188.250000 51.658
188.500000 51.655
188.750000 51.652
189.000000 51.649
189.250000 51.646
189.500000 51.643
189.750000 51.640
190.000000 51.636
190.250000 51.633
190.500000 51.630
190.750000 51.627
191.000000 51.624
191.250000 51.621
191.500000 51.618
191.750000 51.615
192.000000 51.612
192.250000 51.609
192.500000 51.606
192.750000 51.603
193.000000 51.600
193.250000 51.597
193.500000 51.594
193.750000 51.591
194.000000 51.588
194.250000 51.585
194.500000 51.582
194.750000 51.579
195.000000 51.576
195.250000 51.573
195.500000 51.570
195.750000 51.567
196.000000 51.564
196.250000 51.561
196.500000 51.558
196.750000 51.555
197.000000 51.553
197.250000 51.550
197.500000 51.547
197.750000 51.544
198.000000 51.541
198.250000 51.538
198.500000 51.535
198.750000 51.532
199.000000 51.529
199.250000 51.526
199.500000 51.524
199.750000 51.521
200.000000 51.518
200.250000 51.515
200.500000 51.512
200.750000 51.509
201.000000 51.506
201.250000 51.504
201.500000 51.501
201.750000 51.498
202.000000 51.495
202.250000 51.492
202.500000 51.489
202.750000 51.487
203.000000 51.484
203.250000 51.481
203.500000 51.478
203.750000 51.475
204.000000 51.473
204.250000 51.470
204.500000 51.467
204.750000 51.464
205.000000 51.462
205.250000 51.459
205.500000 51.456
205.750000 51.453
206.000000 51.451
206.250000 51.448
206.500000 51.445
206.750000 51.442
207.000000 51.440
207.250000 51.437
207.500000 51.434
207.750000 51.432
208.000000 51.429
208.250000 51.426
208.500000 51.424
208.750000 51.421
209.000000 51.418
209.250000 51.416
209.500000 51.413
209.750000 51.410
210.000000 51.408
210.250000 51.405
210.500000 51.402
210.750000 51.400
211.000000 51.397
211.250000 51.394
211.500000 51.392
211.750000 51.389
212.000000 51.386
212.250000 51.384
212.500000 51.381
212.750000 51.379
213.000000 51.376
213.250000 51.373
213.500000 51.371
213.750000 51.368
214.000000 51.366
214.250000 51.363
214.500000 51.361
214.750000 51.358
215.000000 51.355
215.250000 51.353
215.500000 51.350
215.750000 51.348
216.000000 51.345
216.250000 51.343
216.500000 51.340
216.750000 51.338
217.000000 51.335
217.250000 51.333
217.500000 51.330
217.750000 51.328
218.000000 51.325
218.250000 51.323
218.500000 51.320
218.750000 51.318
219.000000 51.315
219.250000 51.313
219.500000 51.310
219.750000 51.308
220.000000 51.305
220.250000 51.303
220.500000 51.300
220.750000 51.298
221.000000 51.295
221.250000 51.293
221.500000 51.291
221.750000 51.288
222.000000 51.286
222.250000 51.283
222.500000 51.281
222.750000 51.279
223.000000 51.276
223.250000 51.274
223.500000 51.271
223.750000 51.269
224.000000 51.267
224.250000 51.264
224.500000 51.262
224.750000 51.259
225.000000 51.257
225.250000 51.255
225.500000 51.252
225.750000 51.250
226.000000 51.248
226.250000 51.245
226.500000 51.243
226.750000 51.241
227.000000 51.238
227.250000 51.236
227.500000 51.234
227.750000 51.231
228.000000 51.229
228.250000 51.227
228.500000 51.224
228.750000 51.222
229.000000 51.220
229.250000 51.218
229.500000 51.215
229.750000 51.213
230.000000 51.211
230.250000 51.208
230.500000 51.206
230.750000 51.204
231.000000 51.202
231.250000 51.199
231.500000 51.197
231.750000 51.195
232.000000 51.193
232.250000 51.190
232.500000 51.188
232.750000 51.186
233.000000 51.184
233.250000 51.182
233.500000 51.179
233.750000 51.177
234.000000 51.175
234.250000 51.173
234.500000 51.171
234.750000 51.168
235.000000 51.166
235.250000 51.164
235.500000 51.162
235.750000 51.160
236.000000 51.158
236.250000 51.156
236.500000 51.153
236.750000 51.151
237.000000 51.149
237.250000 51.147
237.500000 51.145
237.750000 51.143
238.000000 51.141
238.250000 51.139
238.500000 51.137
238.750000 51.135
239.000000 51.133
239.250000 51.131
239.500000 51.129
239.750000 51.127
240.000000 51.125
240.250000 51.123
240.500000 51.121
240.750000 51.119
241.000000 51.117
241.250000 51.115
241.500000 51.113
241.750000 51.111
242.000000 51.109
242.250000 51.108
242.500000 51.106
242.750000 51.104
243.000000 51.102
243.250000 51.100
243.500000 51.099
243.750000 51.097
244.000000 51.095
244.250000 51.093
244.500000 51.092
244.750000 51.090
245.000000 51.089
245.250000 51.087
245.500000 51.086
245.750000 51.084
246.000000 51.083
246.250000 51.081
246.500000 51.080
246.750000 51.078
247.000000 51.077
247.250000 51.076
247.500000 51.074
247.750000 51.073
248.000000 51.072
248.250000 51.071
248.500000 51.070
248.750000 51.068
249.000000 51.067
249.250000 51.066
249.500000 51.065
249.750000 51.064
250.000000 51.063
250.250000 51.063
250.500000 51.062
250.750000 51.061
251.000000 51.060
251.250000 51.059
251.500000 51.059
251.750000 51.058
252.000000 51.057
252.250000 51.056
252.500000 51.056
252.750000 51.055
253.000000 51.045
655.000000 51.046
655.250000 51.046
800.250000 51.046
1000.250000 51.046
2000.250000 51.046
5000.250000 51.046
8000.250000 51.046
19745.250000 51.046
